Level #,Start Time (s),End Time (s),Dwell Time (/s),Int (counts/s),Num of Photons
0,0.000365786,1.195215475,1.194849689,3511.738789095504,4196
1,1.195323134,21.491358789,20.296035655,3557.295682135517,72199
2,21.491358789,25.401666519,3.91030773,3528.1110727313526,13796
3,25.401666519,27.23044525,1.828778731,3605.684978846137,6594
4,27.23044525,30.207165649,2.976720399,3400.7224875405573,10123
5,30.207165649,30.465135032,0.257969383,658.9929317309721,170
6,30.465135032,32.66677618,2.201641148,3535.544385637545,7784
7,32.667407987,34.503899341,1.836491354,3697.812127026218,6791
