Level #,Start Time (s),End Time (s),Dwell Time (/s),Int (counts/s),Num of Photons
0,8.3634e-05,11.22152491,11.221441276,3220.6201602012466,36140
1,11.221779218,13.486731165,2.264951947,1152.3423282586753,2610
2,13.486731165,19.093099288,5.606368123,3279.6633393671996,18387
3,19.093099288,23.355519162,4.262419874,3235.486040247381,13791
4,23.355519162,23.485430238,0.129911076,1208.5189718542554,157
5,23.485430238,24.109682354,0.624252116,3186.2126679599432,1989
6,24.109682354,24.214722398,0.105040044,1494.6680715404118,157
7,24.214722398,32.545752271,8.331029873,3174.6375181915037,26448
8,32.545808403,33.940318452,1.394510049,1259.940723453331,1757
