Level #,Start Time (s),End Time (s),Dwell Time (/s),Int (counts/s),Num of Photons
0,0.000416839,4.672168759,4.67175192,3135.868567267587,14650
1,4.673317294,13.482914065,8.809596771,3172.562913663009,27949
2,13.482914065,22.802986089,9.320072024,3197.5074788327624,29801
3,22.802986089,23.128495026,0.325508937,3108.977619253508,1012
4,23.128495026,23.31036494,0.181869914,1319.6245311910138,240
5,23.31036494,28.901813834,5.591448894,3151.5981517616283,17622
6,28.901813834,30.548644866,1.646831032,3209.801064764002,5286
7,30.548644866,31.010176758,0.461531892,3213.2124035320185,1483
8,31.010318216,33.959497426,2.94917921,1450.2340127373948,4277
