Level #,Start Time (s),End Time (s),Dwell Time (/s),Int (counts/s),Num of Photons
0,0.000267308,4.751434113,4.751166805,1544.041769335438,7336
1,4.751651301,5.512890732,0.761239431,1150.754893042318,876
2,5.512890732,6.224160965,0.711270233,1415.776948449915,1007
3,6.224160965,11.459354612,5.235193647,1486.477965234282,7782
4,11.459354612,12.141858662,0.68250405,1305.4867586500036,891
5,12.141858662,14.771327357,2.629468695,983.4686394697694,2586
6,14.77276269,32.087481429,17.314718739,1473.1974792374363,25508
