Level #,Start Time (s),End Time (s),Dwell Time (/s),Int (counts/s),Num of Photons
0,6.3157e-05,17.307598563,17.307535406,3940.3646099928137,68198
1,17.307909848,30.933771625,13.625861777,3708.536078451664,50532
2,30.933771625,41.604431572,10.670659947,3541.1118138595853,37786
3,41.604431572,56.271217944,14.666786372,3388.8814317830847,49704
4,56.271217944,59.643554219,3.372336275,3312.2438242016656,11170
5,59.643554219,60.664202569,1.02064835,3360.608969778866,3430
6,60.664202569,66.861696556,6.197493987,3258.73652194961,20196
7,66.861744135,69.13583442,2.274090285,3262.843190062702,7420
